File: impedance/2021-09-28 PBS copper wire/copper-wire_100mV.csv
#Digilent WaveForms Impedance Analyzer
#Device Name: Discovery2
#Serial Number: SN:210321B19D0B
#Date Time:
#Digilent WaveForms Impedance Analyzer Trace#Trace: Trace
#Start: 0.1 Hz
#Stop: 1e+07 Hz
#Steps: 81
#Resistor: 100 O
#Average: 1
#ProbeResistance: 1.04e+06 O
#ProbeCapacitance: 4.3e-11 F
#Compensation:none
#Wavegen: Wavegen1
#Amplitude: 0.1 V
#Offset: 0 V
#Amplification: 1 X
#Settle: 0.01 s
#MinPeriods: 16
#Scale: Logarithmic
#Channel: Channel 1
#Range: 5.53139 V
#Offset: -3.93045e-05 V
#Attenuation: 1 X
#Channel: Channel 2
#Range: 5.54075 V
#Offset: 6.34596e-06 V
#Attenuation: 1 X

Frequency (Hz),Trace th (deg),Trace |Z| (Ohm)
0.1,-27.937,5311.73
0.125893,-29.9663,5691.01
0.158489,-29.9564,5766.67
0.199526,-31.3272,5622.12
0.251189,-32.5376,5422.24
0.316228,-33.2057,5081.44
0.398107,-34.38,4805.72
0.501187,-35.086,4522.75
0.630957,-35.7774,4166.36
0.794328,-36.6413,3871.35
1,-37.4955,3546.37
1.25893,-39.0674,3239.88
1.58489,-40.0195,2968.81
1.99526,-40.7512,2704.16
2.51189,-42.3838,2465.07
3.16228,-43.4638,2229.97
3.98107,-44.7518,2007.88
5.01187,-45.7623,1799.73
6.30957,-47.1856,1615.92
7.94328,-48.4318,1443.82
10,-49.3336,1279.88
12.5893,-50.4517,1136.92
15.8489,-51.4953,1001.25
19.9526,-52.4444,881.041
25.1189,-53.2661,772.365
31.6228,-53.8684,676.429
39.8107,-54.4413,589.802
50.1187,-54.8899,513.132
63.0957,-55.0936,445.683
79.4328,-55.3192,386.063
100,-55.3568,334.123
125.893,-55.2371,289.021
158.489,-54.9166,250.001
199.526,-54.4477,216.419
251.189,-53.8247,187.143
316.228,-52.909,162.007
398.107,-51.837,140.399
501.187,-50.4494,121.743
630.957,-48.6526,105.849
794.328,-46.6533,92.4399
1000,-44.1001,81.2626
1258.93,-41.2862,71.9532
1584.89,-37.9021,64.2666
1995.26,-34.2207,58.0946
2511.89,-30.5161,53.3982
3162.28,-26.8462,49.7562
3981.07,-23.2806,46.7942
5011.87,-19.7353,44.6515
6309.57,-16.6217,43.1341
7943.28,-13.9431,41.9795
10000,-11.58,41.1726
12589.3,-9.64322,40.5943
15848.9,-7.88866,39.9644
19952.6,-6.47689,39.61
25118.9,-5.41231,39.3915
31622.8,-4.54336,39.21
39810.7,-3.75116,39.0042
50118.7,-3.18989,39.237
63095.7,-2.36804,38.7555
79432.8,-2.01979,38.8177
100000,-1.84082,38.918
125893,-1.41244,38.8263
158489,-0.815153,38.8403
199526,-0.565359,38.4181
251189,0.0862795,38.5673
316228,0.0358008,38.5498
398107,-0.0293092,38.7623
501187,0.775652,38.6953
630957,0.634522,38.6822
794328,0.655854,38.8929
1000000,0.841327,38.6993
1.25893e+06,1.66855,38.781
1.58489e+06,1.91371,38.7989
1.99526e+06,2.51685,38.9028
2.51189e+06,3.04774,38.9152
3.16228e+06,4.1092,39.0743
3.98107e+06,5.02383,39.1002
5.01187e+06,6.41314,39.3614
6.30957e+06,7.53621,39.6879
7.94328e+06,9.61638,40.2159
10000000,11.8769,41.1208