File: impedance/2021-09-28 PBS copper wire/copper-wire_500mV.csv
#Digilent WaveForms Impedance Analyzer
#Device Name: Discovery2
#Serial Number: SN:210321B19D0B
#Date Time:
#Digilent WaveForms Impedance Analyzer Trace#Trace: Trace
#Start: 0.1 Hz
#Stop: 1e+07 Hz
#Steps: 81
#Resistor: 100 O
#Average: 1
#ProbeResistance: 1.04e+06 O
#ProbeCapacitance: 4.3e-11 F
#Compensation:none
#Wavegen: Wavegen1
#Amplitude: 0.5 V
#Offset: 0 V
#Amplification: 1 X
#Settle: 0.01 s
#MinPeriods: 16
#Scale: Logarithmic
#Channel: Channel 1
#Range: 5.53139 V
#Offset: -3.93045e-05 V
#Attenuation: 1 X
#Channel: Channel 2
#Range: 5.54075 V
#Offset: 6.34596e-06 V
#Attenuation: 1 X

Frequency (Hz),Trace th (deg),Trace |Z| (Ohm)
0.1,-32.9175,4114.9
0.125893,-33.4942,4621.48
0.158489,-34.2091,4463.37
0.199526,-34.8956,4115.65
0.251189,-35.8315,3723.96
0.316228,-36.7909,3339.32
0.398107,-37.5843,2980.99
0.501187,-38.5989,2654.89
0.630957,-39.3662,2351.52
0.794328,-40.2193,2081.44
1,-41.0027,1839.78
1.25893,-41.7106,1623.73
1.58489,-42.4491,1432.3
1.99526,-43.136,1262.55
2.51189,-43.7978,1113.22
3.16228,-44.4166,979.578
3.98107,-45.0044,861.848
5.01187,-45.5512,758.066
6.30957,-46.0081,666.629
7.94328,-46.4401,586.216
10,-46.7608,515.313
12.5893,-46.9747,453.158
15.8489,-47.056,398.697
19.9526,-47.0103,350.69
25.1189,-46.8113,308.463
31.6228,-46.4689,271.199
39.8107,-45.9347,238.537
50.1187,-45.146,209.736
63.0957,-44.1215,184.601
79.4328,-42.8853,162.913
100,-41.4883,144.419
125.893,-40.1255,129.144
158.489,-38.9146,116.488
199.526,-37.8983,105.906
251.189,-36.9869,96.7335
316.228,-36.1556,88.711
398.107,-35.1298,81.4008
501.187,-33.8613,74.768
630.957,-32.2396,68.8165
794.328,-30.2657,63.5713
1000,-28.0311,59.08
1258.93,-25.6137,55.2697
1584.89,-23.1604,52.0472
1995.26,-20.7077,49.4107
2511.89,-18.3642,47.2411
3162.28,-16.0921,45.4815
3981.07,-14.0075,44.0521
5011.87,-12.083,42.8776
6309.57,-10.4083,41.9577
7943.28,-8.86914,41.2167
10000,-7.48581,40.6726
12589.3,-6.26266,40.2113
15848.9,-5.22263,39.8431
19952.6,-4.29395,39.5987
25118.9,-3.55484,39.4277
31622.8,-2.97588,39.1819
39810.7,-2.35594,39.1062
50118.7,-1.77972,39.0431
63095.7,-1.48478,38.9045
79432.8,-1.23229,38.8897
100000,-0.982476,38.8441
125893,-0.703278,38.8337
158489,-0.287525,38.8225
199526,-0.162634,38.758
251189,0.0372188,38.8293
316228,0.130469,38.8502
398107,0.216252,38.8528
501187,0.440156,38.833
630957,0.666418,38.7658
794328,0.870394,38.7897
1000000,1.1872,38.8414
1.25893e+06,1.53447,38.8295
1.58489e+06,1.95889,38.8319
1.99526e+06,2.517,38.8831
2.51189e+06,3.18905,38.9147
3.16228e+06,4.04672,38.97
3.98107e+06,5.09008,39.06
5.01187e+06,6.40699,39.2298
6.30957e+06,7.67243,39.4655
7.94328e+06,9.70735,39.7602
10000000,11.8473,40.2083