File: impedance/2021-09-28 PBS copper wire/copper-wire_10mV.csv
#Digilent WaveForms Impedance Analyzer
#Device Name: Discovery2
#Serial Number: SN:210321B19D0B
#Date Time:
#Digilent WaveForms Impedance Analyzer Trace#Trace: Trace
#Start: 0.1 Hz
#Stop: 1e+07 Hz
#Steps: 81
#Resistor: 100 O
#Average: 1
#ProbeResistance: 1.04e+06 O
#ProbeCapacitance: 4.3e-11 F
#Compensation:none
#Wavegen: Wavegen1
#Amplitude: 0.01 V
#Offset: 0 V
#Amplification: 1 X
#Settle: 0.01 s
#MinPeriods: 16
#Scale: Logarithmic
#Channel: Channel 1
#Range: 5.53139 V
#Offset: -3.93045e-05 V
#Attenuation: 1 X
#Channel: Channel 2
#Range: 5.54075 V
#Offset: 6.34596e-06 V
#Attenuation: 1 X

Frequency (Hz),Trace th (deg),Trace |Z| (Ohm)
0.1,1.57437,4676.97
0.125893,-1.63988,5859.95
0.158489,-9.0197,5206.49
0.199526,-10.3559,5039.81
0.251189,-14.5329,4342.62
0.316228,-8.27983,4610.66
0.398107,-14.7104,4715.9
0.501187,-17.3901,4627.47
0.630957,-21.5777,3986.9
0.794328,-31.3967,3514.06
1,-26.5579,3492.32
1.25893,-30.8475,3328.47
1.58489,-35.3978,3164.05
1.99526,-43.7383,2829.32
2.51189,-42.7802,2495.17
3.16228,-44.1398,2055.35
3.98107,-44.1761,1968.49
5.01187,-44.5223,1747.7
6.30957,-44.9371,1467.09
7.94328,-47.9129,1328.44
10,-48.608,1140.67
12.5893,-48.6712,1018.46
15.8489,-50.0359,902.453
19.9526,-50.5014,772.673
25.1189,-50.7339,693.804
31.6228,-51.2797,614.437
39.8107,-50.1343,537.883
50.1187,-50.5948,472.834
63.0957,-50.8716,408.311
79.4328,-50.0767,362.607
100,-50.4019,317.587
125.893,-50.0287,278.303
158.489,-49.5176,244.884
199.526,-49.3268,214.406
251.189,-49.0341,187.706
316.228,-48.432,165.013
398.107,-47.6245,144.153
501.187,-47.4243,127.637
630.957,-45.7205,112.034
794.328,-44.2272,99.5674
1000,-42.5817,87.543
1258.93,-40.3311,77.6704
1584.89,-38.2241,69.8651
1995.26,-34.9856,63.1799
2511.89,-31.4675,56.3896
3162.28,-28.9753,52.077
3981.07,-25.2942,48.5792
5011.87,-22.2574,45.9925
6309.57,-19.1146,44.1135
7943.28,-17.3595,42.6746
10000,-13.1856,40.9202
12589.3,-11.0931,40.8318
15848.9,-8.12723,38.8474
19952.6,-8.28699,38.7264
25118.9,-4.86318,39.9294
31622.8,-4.43384,39.7306
39810.7,-4.65192,39.0433
50118.7,-3.08018,41.5838
63095.7,0.669522,38.5322
79432.8,-3.28978,37.83
100000,-0.501692,35.2916
125893,-2.35011,40.1844
158489,6.07181,36.5994
199526,0.52463,35.6329
251189,-4.04397,36.5693
316228,6.23291,40.1514
398107,3.18236,36.9151
501187,-1.93095,36.8183
630957,-0.255155,37.3428
794328,-1.15481,38.9221
1000000,0.378601,38.4961
1.25893e+06,0.134125,37.3518
1.58489e+06,-0.245454,38.5751
1.99526e+06,1.08945,39.4186
2.51189e+06,1.32619,37.4078
3.16228e+06,2.64556,39.451
3.98107e+06,1.23251,39.6088
5.01187e+06,1.66237,40.2749
6.30957e+06,5.4443,41.5433
7.94328e+06,9.68082,44.1835
10000000,11.8642,49.0213