File: impedance/2021-09-28 PBS copper wire/copper-wire_1V.csv
#Digilent WaveForms Impedance Analyzer
#Device Name: Discovery2
#Serial Number: SN:210321B19D0B
#Date Time:
#Digilent WaveForms Impedance Analyzer Trace#Trace: Trace
#Start: 0.1 Hz
#Stop: 1e+07 Hz
#Steps: 81
#Resistor: 100 O
#Average: 1
#ProbeResistance: 1.04e+06 O
#ProbeCapacitance: 4.3e-11 F
#Compensation:none
#Wavegen: Wavegen1
#Amplitude: 1 V
#Offset: 0 V
#Amplification: 1 X
#Settle: 0.01 s
#MinPeriods: 16
#Scale: Logarithmic
#Channel: Channel 1
#Range: 5.53139 V
#Offset: -3.93045e-05 V
#Attenuation: 1 X
#Channel: Channel 2
#Range: 5.54075 V
#Offset: 6.34596e-06 V
#Attenuation: 1 X

Frequency (Hz),Trace th (deg),Trace |Z| (Ohm)
0.1,-45.7999,3447.91
0.125893,-47.1588,4147.57
0.158489,-44.433,4658.63
0.199526,-44.3646,4486.73
0.251189,-45.4633,4111.22
0.316228,-46.657,3651.8
0.398107,-47.8202,3244.45
0.501187,-49.0224,2857.5
0.630957,-50.1957,2523.22
0.794328,-51.4558,2225.1
1,-52.6922,1956.38
1.25893,-53.8133,1709.17
1.58489,-54.8322,1485.76
1.99526,-55.6751,1287.05
2.51189,-56.3547,1111.66
3.16228,-56.8934,957.864
3.98107,-57.2298,823.63
5.01187,-57.3993,707.21
6.30957,-57.3616,606.657
7.94328,-57.11,520.206
10,-56.6324,446.182
12.5893,-55.9416,382.904
15.8489,-55.0516,328.928
19.9526,-54.048,283.306
25.1189,-53.0478,245.122
31.6228,-52.0448,213.266
39.8107,-50.9634,186.38
50.1187,-49.7429,163.562
63.0957,-48.287,143.929
79.4328,-46.5338,126.864
100,-44.4318,112.033
125.893,-42.0085,99.3223
158.489,-39.0979,88.3255
199.526,-35.8921,79.2928
251.189,-32.651,72.1421
316.228,-29.9306,66.7535
398.107,-27.9962,62.6558
501.187,-26.6555,59.2481
630.957,-25.5194,56.2073
794.328,-24.1609,53.3232
1000,-22.5701,50.6889
1258.93,-20.6392,48.3447
1584.89,-18.4696,46.36
1995.26,-16.2265,44.7202
2511.89,-14.0741,43.4066
3162.28,-12.0715,42.3456
3981.07,-10.2936,41.5342
5011.87,-8.70172,40.8881
6309.57,-7.32482,40.365
7943.28,-6.11857,39.9671
10000,-5.07531,39.6715
12589.3,-4.21053,39.4464
15848.9,-3.47372,39.2532
19952.6,-2.87791,39.1106
25118.9,-2.3699,38.9966
31622.8,-1.90156,38.9133
39810.7,-1.53993,38.8382
50118.7,-1.22267,38.7804
63095.7,-0.9422,38.7391
79432.8,-0.712561,38.7406
100000,-0.529645,38.7123
125893,-0.374061,38.6684
158489,-0.155758,38.6905
199526,-0.00440654,38.692
251189,0.116498,38.7553
316228,0.240807,38.7752
398107,0.385521,38.7291
501187,0.510676,38.7324
630957,0.738961,38.7281
794328,0.966768,38.7399
1000000,1.24385,38.7567
1.25893e+06,1.59836,38.7479
1.58489e+06,2.0081,38.7671
1.99526e+06,2.5911,38.8083
2.51189e+06,3.22891,38.8512
3.16228e+06,4.07533,38.925
3.98107e+06,5.16224,39.0481
5.01187e+06,6.57862,39.2284
6.30957e+06,7.97051,39.5373
7.94328e+06,10.1912,39.8705
10000000,12.5543,40.373