File: impedance/2021-09-28 PBS copper wire/copper-wire_50mV.csv
#Digilent WaveForms Impedance Analyzer
#Device Name: Discovery2
#Serial Number: SN:210321B19D0B
#Date Time:
#Digilent WaveForms Impedance Analyzer Trace#Trace: Trace
#Start: 0.1 Hz
#Stop: 1e+07 Hz
#Steps: 81
#Resistor: 100 O
#Average: 1
#ProbeResistance: 1.04e+06 O
#ProbeCapacitance: 4.3e-11 F
#Compensation:none
#Wavegen: Wavegen1
#Amplitude: 0.05 V
#Offset: 0 V
#Amplification: 1 X
#Settle: 0.01 s
#MinPeriods: 16
#Scale: Logarithmic
#Channel: Channel 1
#Range: 5.53139 V
#Offset: -3.93045e-05 V
#Attenuation: 1 X
#Channel: Channel 2
#Range: 5.54075 V
#Offset: 6.34596e-06 V
#Attenuation: 1 X

Frequency (Hz),Trace th (deg),Trace |Z| (Ohm)
0.1,-24.5947,6787.67
0.125893,-27.3134,6390.87
0.158489,-29.1957,6223.78
0.199526,-29.2775,5800.85
0.251189,-32.0712,5655.44
0.316228,-31.3262,5272.74
0.398107,-31.9879,4891.71
0.501187,-33.9683,4448.76
0.630957,-35.7262,4090.33
0.794328,-37.1829,3864.58
1,-38.6055,3492.58
1.25893,-40.1348,3232.54
1.58489,-42.0333,2984.28
1.99526,-42.2448,2635.34
2.51189,-44.2246,2369.68
3.16228,-45.5346,2150.01
3.98107,-46.7029,1893.19
5.01187,-47.6212,1703.31
6.30957,-48.48,1527.17
7.94328,-49.2445,1345.94
10,-50.0549,1188.99
12.5893,-50.8653,1049.72
15.8489,-51.1142,921.945
19.9526,-51.764,808.269
25.1189,-52.019,709.75
31.6228,-52.2471,622.801
39.8107,-52.3845,543.295
50.1187,-52.6611,474.58
63.0957,-52.6375,415.004
79.4328,-52.4687,363.188
100,-52.3806,316.969
125.893,-52.1888,277.234
158.489,-51.7469,241.931
199.526,-51.289,210.947
251.189,-50.759,184.239
316.228,-50.1785,160.868
398.107,-49.1924,140.294
501.187,-48.1897,122.661
630.957,-46.8638,107.085
794.328,-45.1287,94.1766
1000,-43.0354,82.9118
1258.93,-40.72,73.4999
1584.89,-37.8546,65.8227
1995.26,-34.4935,59.3873
2511.89,-30.8517,54.246
3162.28,-27.4604,50.3099
3981.07,-23.6372,47.558
5011.87,-20.6327,45.0858
6309.57,-17.1643,43.5182
7943.28,-14.3676,42.0536
10000,-12.0907,41.1321
12589.3,-9.99234,40.6078
15848.9,-7.97416,39.9134
19952.6,-7.34325,39.7458
25118.9,-5.20126,39.5821
31622.8,-4.07525,39.0534
39810.7,-3.54565,38.649
50118.7,-3.0793,38.8179
63095.7,-2.4305,38.4226
79432.8,-2.08495,39.1861
100000,-1.69129,38.4059
125893,0.2617,38.8524
158489,-0.808838,39.212
199526,-0.649613,39.1571
251189,0.0876254,38.1456
316228,-0.23754,38.628
398107,-0.678781,38.6524
501187,0.170025,38.4572
630957,-0.0917943,39.0013
794328,0.651488,38.8381
1000000,1.32307,38.5473
1.25893e+06,1.04746,38.4065
1.58489e+06,1.78561,38.5686
1.99526e+06,2.23319,38.6069
2.51189e+06,3.27578,38.6278
3.16228e+06,4.09254,38.763
3.98107e+06,4.69459,39.0613
5.01187e+06,6.20114,39.4645
6.30957e+06,7.05764,39.63
7.94328e+06,9.50647,40.0605
10000000,11.4608,41.6113