File: impedance/2021-09-21 training/copperTape-MB1000ug.csv
#Digilent WaveForms Impedance Analyzer
#Device Name: Discovery2
#Serial Number: SN:210321B19D0B
#Date Time:
#Digilent WaveForms Impedance Analyzer Trace#Trace: Trace
#Start: 1 Hz
#Stop: 1e+07 Hz
#Steps: 71
#Resistor: 1000 O
#Average: 1
#ProbeResistance: 1.04e+06 O
#ProbeCapacitance: 4.3e-11 F
#Compensation:none
#Wavegen: Wavegen1
#Amplitude: 1 V
#Offset: 0 V
#Amplification: 1 X
#Settle: 0.01 s
#MinPeriods: 16
#Scale: Logarithmic
#Channel: Channel 1
#Range: 5.53139 V
#Offset: -3.93045e-05 V
#Attenuation: 1 X
#Channel: Channel 2
#Range: 5.54075 V
#Offset: 6.34596e-06 V
#Attenuation: 1 X

Frequency (Hz),Trace th (deg),Trace |Z| (Ohm),Trace Cs (F)
1,-15.4446,2576.52,0.000231957
1.25893,-15.0297,2516.19,0.00019375
1.58489,-15.1435,2443.34,0.000157326
1.99526,-15.3575,2382.19,0.000126433
2.51189,-15.5797,2328.9,0.000101297
3.16228,-15.8165,2279.39,8.10108e-05
3.98107,-16.0451,2231.12,6.48292e-05
5.01187,-16.2797,2183.31,5.18847e-05
6.30957,-16.5257,2134.65,4.15428e-05
7.94328,-16.7533,2084.43,3.33473e-05
10,-16.9819,2032.54,2.68098e-05
12.5893,-17.1769,1979.15,2.16294e-05
15.8489,-17.3335,1923.34,1.75244e-05
19.9526,-17.4219,1865.19,1.42836e-05
25.1189,-17.4096,1805.28,1.17304e-05
31.6228,-17.2619,1744.47,9.72257e-06
39.8107,-16.9944,1683.64,8.12408e-06
50.1187,-16.4775,1623.68,6.89533e-06
63.0957,-15.7681,1566.1,5.92706e-06
79.4328,-14.8503,1512.61,5.16835e-06
100,-13.7091,1464.31,4.58619e-06
125.893,-12.5065,1421.81,4.106e-06
158.489,-11.2222,1385.43,3.72443e-06
199.526,-9.93551,1354.92,3.41205e-06
251.189,-8.69212,1329.55,3.15341e-06
316.228,-7.52292,1309.06,2.93661e-06
398.107,-6.45656,1292.54,2.75053e-06
501.187,-5.5042,1279.38,2.58772e-06
630.957,-4.65931,1268.82,2.44736e-06
794.328,-3.93004,1260.43,2.31935e-06
1000,-3.30438,1253.86,2.20214e-06
1258.93,-2.77747,1248.76,2.08922e-06
1584.89,-2.32947,1244.66,1.98497e-06
1995.26,-1.94888,1241.23,1.88968e-06
2511.89,-1.63655,1238.85,1.79082e-06
3162.28,-1.3708,1236.84,1.70097e-06
3981.07,-1.1839,1234.79,1.56698e-06
5011.87,-1.00265,1233.25,1.47151e-06
6309.57,-0.855961,1231.92,1.37064e-06
7943.28,-0.737242,1230.8,1.2652e-06
10000,-0.660414,1229.78,1.12282e-06
12589.3,-0.576521,1228.95,1.02236e-06
15848.9,-0.524284,1228.22,8.93526e-07
19952.6,-0.513597,1227.7,7.24827e-07
25118.9,-0.458355,1227.13,6.45438e-07
31622.8,-0.505912,1226.56,4.64712e-07
39810.7,-0.519648,1225.83,3.59592e-07
50118.7,-0.488222,1225.51,3.04097e-07
63095.7,-0.607363,1225.41,1.94187e-07
79432.8,-0.688914,1226.28,1.35893e-07
100000,-0.848353,1225.88,8.76868e-08
125893,-0.987735,1224.82,5.98756e-08
158489,-1.26928,1226.28,3.69685e-08
199526,-1.5041,1226.67,2.47735e-08
251189,-1.92073,1226.26,1.54161e-08
316228,-2.48076,1227.11,9.47567e-09
398107,-3.0569,1226.61,6.11168e-09
501187,-3.91539,1225.88,3.79364e-09
630957,-4.96079,1224.15,2.38287e-09
794328,-6.26506,1223.26,1.50095e-09
1e+06,-7.9318,1221.3,9.44355e-10
1.25893e+06,-10.0605,1216.25,5.95027e-10
1.58489e+06,-12.7432,1208.29,3.76773e-10
1.99526e+06,-16.1168,1194.17,2.40625e-10
2.51189e+06,-20.3472,1169.6,1.558e-10
3.16228e+06,-25.4032,1129.13,1.03905e-10
3.98107e+06,-31.2269,1068.32,7.21825e-11
5.01187e+06,-37.5823,987.178,5.27431e-11
6.30957e+06,-44.0547,889.7,4.07734e-11
7.94328e+06,-52.7147,770.815,3.26708e-11
10000000,-57.4393,629.046,3.00194e-11