File: impedance/2021-09-21 training/copperTape-DIwater.csv
#Digilent WaveForms Impedance Analyzer
#Device Name: Discovery2
#Serial Number: SN:210321B19D0B
#Date Time:
#Digilent WaveForms Impedance Analyzer Trace#Trace: Trace
#Start: 1 Hz
#Stop: 1e+07 Hz
#Steps: 71
#Resistor: 10000 O
#Average: 1
#ProbeResistance: 1.04e+06 O
#ProbeCapacitance: 4.3e-11 F
#Compensation:none
#Wavegen: Wavegen1
#Amplitude: 1 V
#Offset: 0 V
#Amplification: 1 X
#Settle: 0.01 s
#MinPeriods: 16
#Scale: Logarithmic
#Channel: Channel 1
#Range: 5.53139 V
#Offset: -3.93045e-05 V
#Attenuation: 1 X
#Channel: Channel 2
#Range: 5.54075 V
#Offset: 6.34596e-06 V
#Attenuation: 1 X

Frequency (Hz),Trace th (deg),Trace |Z| (Ohm),Trace Cs (F)
1,-2.41716,222825,1.69357e-05
1.25893,-2.34629,218708,1.41195e-05
1.58489,-2.24396,215501,1.19012e-05
1.99526,-2.15062,213035,9.97766e-06
2.51189,-2.03634,210970,8.45208e-06
3.16228,-1.89982,209158,7.25831e-06
3.98107,-1.75509,207752,6.28297e-06
5.01187,-1.62995,206446,5.4078e-06
6.30957,-1.51969,205351,4.63172e-06
7.94328,-1.36669,204340,4.11112e-06
10,-1.25405,203539,3.57285e-06
12.5893,-1.11557,202736,3.2029e-06
15.8489,-0.998709,202232,2.84889e-06
19.9526,-0.895622,201694,2.53012e-06
25.1189,-0.808455,201292,2.23087e-06
31.6228,-0.721664,200893,1.98909e-06
39.8107,-0.653493,200639,1.74701e-06
50.1187,-0.905982,198402,1.01227e-06
63.0957,-0.622428,200259,1.1595e-06
79.4328,-0.481529,200070,1.19164e-06
100,-0.706672,200454,6.43757e-07
125.893,-0.524656,199693,6.91373e-07
158.489,-0.523196,199716,5.50644e-07
199.526,-0.525883,199993,4.34556e-07
251.189,-0.647805,199662,2.80681e-07
316.228,-0.678881,199430,2.12994e-07
398.107,-0.93414,199317,1.23029e-07
501.187,-1.03372,199332,8.83056e-08
630.957,-1.27875,199267,5.67231e-08
794.328,-1.53402,199326,3.7549e-08
1000,-1.83472,199139,2.49627e-08
1258.93,-2.29397,198730,1.58931e-08
1584.89,-2.92898,199180,9.86666e-09
1995.26,-3.64633,198956,6.30411e-09
2511.89,-4.55605,198478,4.01882e-09
3162.28,-5.71207,198162,2.55181e-09
3981.07,-7.15668,197452,1.62517e-09
5011.87,-8.95582,196558,1.0378e-09
6309.57,-11.2739,195126,6.61242e-10
7943.28,-14.0487,192626,4.28501e-10
10000,-17.33,189529,2.8191e-10
12589.3,-21.4041,184339,1.87923e-10
15848.9,-26.2517,176989,1.28275e-10
19952.6,-31.613,167296,9.09608e-11
25118.9,-37.445,154818,6.73127e-11
31622.8,-43.3888,139522,5.25115e-11
39810.7,-47.1655,119935,4.54548e-11
50118.7,-55.0111,98107.9,3.95087e-11
63095.7,-60.2792,89707,3.23778e-11
79432.8,-64.5143,74740.3,2.96979e-11
100000,-67.9187,62079.1,2.76668e-11
125893,-70.9557,51217.5,2.61124e-11
158489,-73.5039,41407.4,2.52928e-11
199526,-75.4573,33745.1,2.44203e-11
251189,-77.0783,27503.3,2.36361e-11
316228,-78.6537,22354.5,2.29629e-11
398107,-79.836,18280.1,2.22183e-11
501187,-81.4918,14703.6,2.18375e-11
630957,-82.7911,11867.7,2.1424e-11
794328,-84.0397,9538.05,2.1121e-11
1e+06,-85.136,7636.22,2.09174e-11
1.25893e+06,-86.0679,6098.94,2.07773e-11
1.58489e+06,-86.858,4856.9,2.07069e-11
1.99526e+06,-87.497,3862.08,2.06735e-11
2.51189e+06,-87.9741,3070.71,2.06468e-11
3.16228e+06,-88.3577,2438.89,2.06446e-11
3.98107e+06,-88.6348,1935.38,2.06622e-11
5.01187e+06,-88.8534,1539.58,2.06303e-11
6.30957e+06,-89.1675,1228.68,2.05318e-11
7.94328e+06,-91.6843,945.883,2.11919e-11
10000000,-89.8585,726.601,2.19041e-11