File: impedance/2021-09-21 training/copperTape-MB10000ug.csv
#Digilent WaveForms Impedance Analyzer
#Device Name: Discovery2
#Serial Number: SN:210321B19D0B
#Date Time:
#Digilent WaveForms Impedance Analyzer Trace#Trace: Trace
#Start: 1 Hz
#Stop: 1e+07 Hz
#Steps: 71
#Resistor: 1000 O
#Average: 1
#ProbeResistance: 1.04e+06 O
#ProbeCapacitance: 4.3e-11 F
#Compensation:none
#Wavegen: Wavegen1
#Amplitude: 1 V
#Offset: 0 V
#Amplification: 1 X
#Settle: 0.01 s
#MinPeriods: 16
#Scale: Logarithmic
#Channel: Channel 1
#Range: 5.53139 V
#Offset: -3.93045e-05 V
#Attenuation: 1 X
#Channel: Channel 2
#Range: 5.54075 V
#Offset: 6.34596e-06 V
#Attenuation: 1 X

Frequency (Hz),Trace th (deg),Trace |Z| (Ohm),Trace Cs (F)
1,-14.6078,664.913,0.000949092
1.25893,-17.4165,702.374,0.000601344
1.58489,-19.7268,713.548,0.000416944
1.99526,-20.9474,706.698,0.000315717
2.51189,-21.7542,695.138,0.000245931
3.16228,-22.4368,681.704,0.000193438
3.98107,-23.0977,667.068,0.000152768
5.01187,-23.7668,651.326,0.000120976
6.30957,-24.4595,634.521,9.60112e-05
7.94328,-25.1986,616.689,7.6312e-05
10,-25.9669,597.795,6.08051e-05
12.5893,-26.7484,578.013,4.85958e-05
15.8489,-27.5582,557.341,3.89446e-05
19.9526,-28.3518,535.561,3.13635e-05
25.1189,-29.1026,512.962,2.53959e-05
31.6228,-29.7885,489.539,2.06944e-05
39.8107,-30.3477,465.591,1.69946e-05
50.1187,-30.8219,441.791,1.40287e-05
63.0957,-31.0937,417.44,1.17006e-05
79.4328,-31.111,393.049,9.8659e-06
100,-30.7701,368.62,8.43948e-06
125.893,-30.3299,345.465,7.24676e-06
158.489,-29.5226,323.063,6.30799e-06
199.526,-28.4902,301.945,5.53816e-06
251.189,-27.1673,282.296,4.91573e-06
316.228,-25.608,264.491,4.40264e-06
398.107,-23.8422,248.536,3.97936e-06
501.187,-21.9078,234.616,3.62761e-06
630.957,-19.8486,222.813,3.33422e-06
794.328,-17.7325,212.863,3.0905e-06
1000,-15.6582,204.797,2.87936e-06
1258.93,-13.6711,198.267,2.69785e-06
1584.89,-11.8307,193.081,2.53679e-06
1995.26,-10.1193,188.974,2.40243e-06
2511.89,-8.6178,185.74,2.27656e-06
3162.28,-7.32144,183.323,2.15433e-06
3981.07,-6.1854,181.188,2.04781e-06
5011.87,-5.17717,179.583,1.95964e-06
6309.57,-4.36102,178.273,1.86075e-06
7943.28,-3.65111,177.396,1.77365e-06
10000,-3.03826,176.488,1.7014e-06
12589.3,-2.50728,175.865,1.64323e-06
15848.9,-2.05355,175.363,1.59805e-06
19952.6,-1.68245,174.897,1.55339e-06
25118.9,-1.36396,174.505,1.52537e-06
31622.8,-1.13029,174.302,1.46379e-06
39810.7,-0.850809,174.216,1.54539e-06
50118.7,-0.599303,173.905,1.74579e-06
63095.7,-0.357135,173.798,2.32845e-06
79432.8,-0.160517,173.702,4.11733e-06
100000,-0.0141076,173.87,3.71762e-05
125893,0.151177,174.096,-2.75213e-06
158489,0.430766,173.928,-7.67957e-07
199526,0.606635,174.172,-4.32558e-07
251189,0.802099,174.378,-2.5956e-07
316228,0.906237,174.907,-1.81934e-07
398107,1.12187,175.018,-1.16666e-07
501187,1.3441,175.326,-7.72155e-08
630957,1.74575,175.699,-4.71257e-08
794328,2.17262,176.362,-2.9968e-08
1e+06,2.60282,177.286,-1.97685e-08
1.25893e+06,3.05805,178.438,-1.32805e-08
1.58489e+06,3.52787,180.505,-9.04096e-09
1.99526e+06,3.91372,183.127,-6.38175e-09
2.51189e+06,4.11887,186.153,-4.73881e-09
3.16228e+06,4.14414,189.617,-3.67291e-09
3.98107e+06,3.88905,192.938,-3.05503e-09
5.01187e+06,3.37748,195.958,-2.75067e-09
6.30957e+06,2.70839,198.582,-2.68815e-09
7.94328e+06,0.527012,199.026,-1.09451e-08
10000000,0.231641,193.594,-2.03347e-08