File: impedance/2021-09-21 training/copperTape-MB100ug.csv
#Digilent WaveForms Impedance Analyzer
#Device Name: Discovery2
#Serial Number: SN:210321B19D0B
#Date Time:
#Digilent WaveForms Impedance Analyzer Trace#Trace: Trace
#Start: 1 Hz
#Stop: 1e+07 Hz
#Steps: 71
#Resistor: 10000 O
#Average: 1
#ProbeResistance: 1.04e+06 O
#ProbeCapacitance: 4.3e-11 F
#Compensation:none
#Wavegen: Wavegen1
#Amplitude: 1 V
#Offset: 0 V
#Amplification: 1 X
#Settle: 0.01 s
#MinPeriods: 16
#Scale: Logarithmic
#Channel: Channel 1
#Range: 5.53139 V
#Offset: -3.93045e-05 V
#Attenuation: 1 X
#Channel: Channel 2
#Range: 5.54075 V
#Offset: 6.34596e-06 V
#Attenuation: 1 X

Frequency (Hz),Trace th (deg),Trace |Z| (Ohm),Trace Cs (F)
1,-11.8849,18862.5,4.097e-05
1.25893,-12.3327,18598.9,3.18243e-05
1.58489,-12.7246,18298.5,2.49149e-05
1.99526,-13.0358,17922.2,1.97318e-05
2.51189,-13.241,17501.1,1.58062e-05
3.16228,-13.3383,17052,1.27937e-05
3.98107,-13.3066,16582.5,1.04746e-05
5.01187,-13.1086,16103.1,8.69503e-06
6.30957,-12.7387,15626,7.32073e-06
7.94328,-12.1897,15165.6,6.25706e-06
10,-11.4655,14737,5.43306e-06
12.5893,-10.5964,14347.8,4.79157e-06
15.8489,-9.63193,14006.7,4.28491e-06
19.9526,-8.60533,13715.5,3.88685e-06
25.1189,-7.58102,13474.6,3.56426e-06
31.6228,-6.60729,13276.9,3.29447e-06
39.8107,-5.69569,13117.3,3.07091e-06
50.1187,-4.90486,12976,2.86224e-06
63.0957,-4.15595,12889.7,2.70028e-06
79.4328,-3.5121,12809.5,2.55338e-06
100,-2.9468,12739.7,2.4301e-06
125.893,-2.48955,12696.7,2.29229e-06
158.489,-2.09212,12657.7,2.17319e-06
199.526,-1.75294,12627.8,2.06499e-06
251.189,-1.47073,12600.7,1.95913e-06
316.228,-1.23596,12579.8,1.85482e-06
398.107,-1.04753,12564.6,1.74041e-06
501.187,-0.882965,12550.1,1.64198e-06
630.957,-0.754228,12540.5,1.52805e-06
794.328,-0.66043,12531.6,1.38713e-06
1000,-0.576444,12521.7,1.26336e-06
1258.93,-0.508358,12515,1.13854e-06
1584.89,-0.484556,12512.6,9.48975e-07
1995.26,-0.456557,12506,8.00447e-07
2511.89,-0.469481,12500.7,6.1858e-07
3162.28,-0.486758,12499.8,4.73949e-07
3981.07,-0.524131,12494.2,3.49783e-07
5011.87,-0.58329,12490.8,2.49733e-07
6309.57,-0.667289,12486.4,1.73461e-07
7943.28,-0.78372,12479.8,1.17378e-07
10000,-0.937468,12479.8,7.79466e-08
12589.3,-1.12432,12474.8,5.16473e-08
15848.9,-1.37792,12475.3,3.34741e-08
19952.6,-1.67981,12472.8,2.18163e-08
25118.9,-2.11059,12471.9,1.37944e-08
31622.8,-2.62666,12469.8,8.80707e-09
39810.7,-2.82188,12479.7,6.50695e-09
50118.7,-3.6932,12602.9,3.91174e-09
63095.7,-5.20088,12458.2,2.23361e-09
79432.8,-6.58249,12443.1,1.40469e-09
100000,-8.33099,12422.7,8.84225e-10
125893,-10.7195,12351.6,5.50275e-10
158489,-13.3426,12300,3.53779e-10
199526,-16.7306,12201.3,2.27099e-10
251189,-21.3228,11920.8,1.46173e-10
316228,-26.6679,11508.3,9.74403e-11
398107,-32.8794,10896.5,6.75824e-11
501187,-39.6693,10047.9,4.95086e-11
630957,-46.6424,9001.07,3.85427e-11
794328,-53.4182,7837.48,3.18364e-11
1e+06,-59.7102,6656.32,2.76905e-11
1.25893e+06,-65.1956,5534.36,2.51645e-11
1.58489e+06,-69.9246,4532.61,2.35882e-11
1.99526e+06,-73.7549,3673.54,2.26168e-11
2.51189e+06,-76.9998,2955.01,2.20058e-11
3.16228e+06,-79.5398,2366.28,2.16288e-11
3.98107e+06,-81.5587,1887.66,2.14105e-11
5.01187e+06,-83.1763,1504.44,2.12586e-11
6.30957e+06,-84.5361,1202.79,2.10673e-11
7.94328e+06,-87.8095,929.097,2.15813e-11
10000000,-86.813,714.264,2.23169e-11