File: impedance/2021-09-21 training/copperTape-MB10ug.csv
#Digilent WaveForms Impedance Analyzer
#Device Name: Discovery2
#Serial Number: SN:210321B19D0B
#Date Time:
#Digilent WaveForms Impedance Analyzer Trace#Trace: Trace
#Start: 1 Hz
#Stop: 1e+07 Hz
#Steps: 71
#Resistor: 10000 O
#Average: 1
#ProbeResistance: 1.04e+06 O
#ProbeCapacitance: 4.3e-11 F
#Compensation:none
#Wavegen: Wavegen1
#Amplitude: 1 V
#Offset: 0 V
#Amplification: 1 X
#Settle: 0.01 s
#MinPeriods: 16
#Scale: Logarithmic
#Channel: Channel 1
#Range: 5.53139 V
#Offset: -3.93045e-05 V
#Attenuation: 1 X
#Channel: Channel 2
#Range: 5.54075 V
#Offset: 6.34596e-06 V
#Attenuation: 1 X

Frequency (Hz),Trace th (deg),Trace |Z| (Ohm),Trace Cs (F)
1,-3.6234,68086.6,3.69875e-05
1.25893,-3.50934,67541.5,3.05787e-05
1.58489,-3.38604,67067.6,2.53508e-05
1.99526,-3.25752,66617.2,2.10719e-05
2.51189,-3.11602,66172.9,1.76147e-05
3.16228,-2.97309,65738.1,1.47609e-05
3.98107,-2.8214,65312.1,1.24354e-05
5.01187,-2.66936,64907.1,1.05051e-05
6.30957,-2.50828,64522.8,8.9329e-06
7.94328,-2.34241,64148.9,7.64208e-06
10,-2.17071,63788.7,6.58719e-06
12.5893,-2.00064,63466.7,5.70581e-06
15.8489,-1.83189,63182.2,4.97191e-06
19.9526,-1.64573,62915.9,4.41452e-06
25.1189,-1.47732,62693.6,3.92007e-06
31.6228,-1.30679,62493.4,3.53134e-06
39.8107,-1.15959,62331.9,3.16926e-06
50.1187,-0.98708,61938.8,2.97611e-06
63.0957,-0.914967,62055,2.54553e-06
79.4328,-0.780553,61963.8,2.37364e-06
100,-0.698472,61783.2,2.11317e-06
125.893,-0.60921,61816.5,1.92344e-06
158.489,-0.536941,61771.3,1.73475e-06
199.526,-0.522344,61760.1,1.41672e-06
251.189,-0.474639,61700.6,1.23964e-06
316.228,-0.444078,61638,1.05351e-06
398.107,-0.468384,61634.8,7.93449e-07
501.187,-0.448812,61616.9,6.57935e-07
630.957,-0.490253,61620.3,4.78414e-07
794.328,-0.568411,61587.4,3.27941e-07
1000,-0.633507,61565.2,2.33811e-07
1258.93,-0.751863,61558.1,1.56506e-07
1584.89,-0.891934,61577.6,1.04762e-07
1995.26,-1.13782,61596.8,6.5214e-08
2511.89,-1.37166,61530.3,4.30178e-08
3162.28,-1.72328,61511,2.72082e-08
3981.07,-2.09853,61482.2,1.77573e-08
5011.87,-2.60357,61464.8,1.13736e-08
6309.57,-3.28487,61371.4,7.17294e-09
7943.28,-4.09761,61314.9,4.57316e-09
10000,-5.13991,61237.1,2.90105e-09
12589.3,-6.43894,61082.4,1.84556e-09
15848.9,-8.05604,60845,1.17768e-09
19952.6,-10.1137,60459.4,7.51321e-10
25118.9,-12.5907,59830.8,4.85814e-10
31622.8,-15.6825,59049.1,3.1532e-10
39810.7,-19.0349,56230,2.17993e-10
50118.7,-25.4885,53965.5,1.36742e-10
63095.7,-28.9411,53152.2,9.80695e-11
79432.8,-34.5762,49833.6,7.08485e-11
100000,-40.6721,45483.2,5.36911e-11
125893,-46.8694,40591,4.26764e-11
158489,-52.9058,35445.7,3.55178e-11
199526,-57.9199,30268.5,3.1102e-11
251189,-62.6861,25481.6,2.79855e-11
316228,-66.9694,21228.5,2.57616e-11
398107,-70.729,17479.7,2.42286e-11
501187,-73.5855,14316.2,2.31241e-11
630957,-76.9245,11583.5,2.23558e-11
794328,-79.4185,9336.55,2.18314e-11
1e+06,-81.4207,7490.89,2.14869e-11
1.25893e+06,-83.1357,5989.69,2.12589e-11
1.58489e+06,-84.5224,4772.69,2.11371e-11
1.99526e+06,-85.6668,3799.28,2.10553e-11
2.51189e+06,-86.509,3018.27,2.10314e-11
3.16228e+06,-87.1593,2399.5,2.10007e-11
3.98107e+06,-87.6825,1904.8,2.10052e-11
5.01187e+06,-88.1032,1512.91,2.10012e-11
6.30957e+06,-88.5149,1207.43,2.0898e-11
7.94328e+06,-91.1034,930.139,2.15453e-11
10000000,-89.4409,714.808,2.22665e-11