File: impedance/2021-09-21 training/copperTape-PBSx0.1.csv
#Digilent WaveForms Impedance Analyzer
#Device Name: Discovery2
#Serial Number: SN:210321B19D0B
#Date Time:
#Digilent WaveForms Impedance Analyzer Trace#Trace: Trace
#Start: 1 Hz
#Stop: 1e+07 Hz
#Steps: 71
#Resistor: 100 O
#Average: 1
#ProbeResistance: 1.04e+06 O
#ProbeCapacitance: 4.3e-11 F
#Compensation:none
#Wavegen: Wavegen1
#Amplitude: 0.01 V
#Offset: 0 V
#Amplification: 1 X
#Settle: 0.01 s
#MinPeriods: 16
#Scale: Logarithmic
#Channel: Channel 1
#Range: 5.53139 V
#Offset: -3.93045e-05 V
#Attenuation: 1 X
#Channel: Channel 2
#Range: 5.54075 V
#Offset: 6.34596e-06 V
#Attenuation: 1 X

Frequency (Hz),Trace th (deg),Trace |Z| (Ohm),Trace Rs (Ohm),Trace Xs (Ohm)
1,-35.3079,1452.19,1185.07,-839.326
1.25893,-39.0339,1253.72,973.856,-789.568
1.58489,-39.1717,1167.33,904.981,-737.342
1.99526,-40.0702,1062.83,813.339,-684.173
2.51189,-39.2299,987.631,765.033,-624.611
3.16228,-39.4739,888.907,686.159,-565.102
3.98107,-39.5955,774.501,596.802,-493.639
5.01187,-38.5214,721.046,564.128,-449.073
6.30957,-38.4224,648.522,508.085,-403.027
7.94328,-37.478,589.104,467.505,-358.444
10,-36.5209,527.476,423.9,-313.909
12.5893,-36.2107,485.989,392.12,-287.102
15.8489,-34.733,444.993,365.702,-253.536
19.9526,-33.8028,402.547,334.499,-223.951
25.1189,-31.9785,365.016,309.624,-193.313
31.6228,-30.5126,341.287,294.025,-173.281
39.8107,-29.4835,312.343,271.894,-153.727
50.1187,-27.1014,287.588,256.011,-131.016
63.0957,-25.241,269.028,243.342,-114.721
79.4328,-23.1898,255.094,234.483,-100.45
100,-21.3249,239.077,222.708,-86.9418
125.893,-19.2112,227.655,214.978,-74.9104
158.489,-17.0553,218.224,208.627,-64.0039
199.526,-15.3582,208.109,200.677,-55.1183
251.189,-13.7764,200.616,194.844,-47.7732
316.228,-11.4453,196.464,192.557,-38.985
398.107,-9.34902,191.358,188.816,-31.0857
501.187,-8.60179,190.778,188.632,-28.534
630.957,-6.72077,188.237,186.943,-22.0295
794.328,-5.02823,184.815,184.104,-16.1984
1000,-4.61851,181.805,181.214,-14.6391
1258.93,-4.70168,181.344,180.734,-14.8644
1584.89,-3.07007,181.331,181.071,-9.71157
1995.26,-2.76386,181.507,181.296,-8.7522
2511.89,-2.53958,178.811,178.635,-7.92301
3162.28,-1.67811,181.534,181.456,-5.31611
3981.07,-0.77168,181.528,181.511,-2.4448
5011.87,-0.190517,179.835,179.834,-0.597978
6309.57,-0.990024,182.355,182.328,-3.15078
7943.28,-0.639861,177.772,177.761,-1.98526
10000,-1.55927,180.364,180.297,-4.90789
12589.3,-0.124329,180.764,180.763,-0.392249
15848.9,0.300692,182.506,182.504,0.957798
19952.6,0.0489312,178.006,178.006,0.152019
25118.9,1.53115,179.846,179.782,4.80557
31622.8,-0.886188,183.373,183.351,-2.8361
39810.7,-0.686846,185.391,185.378,-2.22237
50118.7,-1.57489,178.161,178.094,-4.8965
63095.7,1.03507,186.885,186.855,3.37598
79432.8,1.89001,180.564,180.466,5.95518
100000,2.07862,175.76,175.645,6.37497
125893,0.100847,187.701,187.701,0.330374
158489,2.42795,194.783,194.609,8.25161
199526,-5.59903,170.078,169.266,-16.5938
251189,-1.09732,189.48,189.445,-3.62866
316228,1.3803,173.142,173.091,4.17071
398107,-1.38165,179.238,179.186,-4.32179
501187,1.61746,179.293,179.222,5.06078
630957,-2.82578,179.637,179.419,-8.85596
794328,-0.853423,178.157,178.138,-2.65356
1e+06,-1.62993,182.965,182.891,-5.20424
1.25893e+06,-0.946104,183.326,183.301,-3.02705
1.58489e+06,-0.807963,181.7,181.682,-2.56218
1.99526e+06,-2.46899,180.172,180.005,-7.76159
2.51189e+06,-2.9658,183.388,183.142,-9.48847
3.16228e+06,-4.53555,181.185,180.617,-14.3276
3.98107e+06,-4.87232,182.818,182.158,-15.5278
5.01187e+06,-7.88186,183.722,181.987,-25.194
6.30957e+06,-7.08989,188.56,187.118,-23.2732
7.94328e+06,-9.44496,189.075,186.512,-31.0273
10000000,-10.9527,197.998,194.391,-37.6192