File: impedance/2021-09-23 PBS/copperTape-PBSx1-1V.csv
#Digilent WaveForms Impedance Analyzer
#Device Name: Discovery2
#Serial Number: SN:210321B19D0B
#Date Time:
#Digilent WaveForms Impedance Analyzer Trace#Trace: Trace
#Start: 0.1 Hz
#Stop: 1e+07 Hz
#Steps: 81
#Resistor: 100 O
#Average: 1
#ProbeResistance: 1.04e+06 O
#ProbeCapacitance: 4.3e-11 F
#Compensation:none
#Wavegen: Wavegen1
#Amplitude: 1 V
#Offset: 0 V
#Amplification: 1 X
#Settle: 0.01 s
#MinPeriods: 16
#Scale: Logarithmic
#Channel: Channel 1
#Range: 5.53139 V
#Offset: -3.93045e-05 V
#Attenuation: 1 X
#Channel: Channel 2
#Range: 5.54075 V
#Offset: 6.34596e-06 V
#Attenuation: 1 X

Frequency (Hz),Trace th (deg),Trace |Z| (Ohm),Trace Rs (Ohm)
0.1,-34.2011,773.155,639.453
0.125893,-36.1681,796.008,642.609
0.158489,-37.7449,772.632,610.954
0.199526,-39.5156,735.787,567.624
0.251189,-41.3268,688.529,517.054
0.316228,-42.9619,637.834,466.771
0.398107,-44.3437,580.395,415.075
0.501187,-45.3821,521.721,366.444
0.630957,-46.1044,465.19,322.538
0.794328,-46.6123,413.426,283.995
1,-46.9559,367.007,250.504
1.25893,-47.093,324.786,221.118
1.58489,-47.0553,286.856,195.432
1.99526,-46.8566,253.427,173.3
2.51189,-46.4972,224.862,154.793
3.16228,-46.0284,200.75,139.381
3.98107,-45.583,180.238,126.144
5.01187,-45.1574,163.436,115.249
6.30957,-44.7378,149.388,106.116
7.94328,-44.3786,136.836,97.8015
10,-44.0322,125.565,90.2748
12.5893,-43.6579,115.117,83.2844
15.8489,-43.2228,105.509,76.8843
19.9526,-42.6376,96.6209,71.0795
25.1189,-41.908,88.5065,65.8682
31.6228,-41.0886,81.2766,61.2577
39.8107,-40.1332,74.4651,56.9321
50.1187,-38.9668,67.8007,52.7157
63.0957,-37.4584,61.4148,48.7507
79.4328,-35.6603,55.5769,45.1555
100,-33.6523,50.3999,41.9537
125.893,-31.613,46.0213,39.1921
158.489,-29.6344,42.3288,36.7922
199.526,-27.7986,39.2304,34.7029
251.189,-26.0605,36.5903,32.8702
316.228,-24.3077,34.2921,31.252
398.107,-22.5253,32.2964,29.8325
501.187,-20.7172,30.5653,28.5889
630.957,-18.8946,29.0853,27.5181
794.328,-17.0915,27.8201,26.5914
1000,-15.3341,26.7522,25.7998
1258.93,-13.6206,25.847,25.1201
1584.89,-12.011,25.0971,24.5477
1995.26,-10.4941,24.4784,24.0689
2511.89,-9.09576,23.9812,23.6796
3162.28,-7.79998,23.5712,23.3532
3981.07,-6.64801,23.2486,23.0923
5011.87,-5.61662,23.0012,22.8908
6309.57,-4.72445,22.7931,22.7156
7943.28,-3.94899,22.6399,22.5861
10000,-3.25401,22.518,22.4817
12589.3,-2.66685,22.4352,22.4109
15848.9,-2.17844,22.3584,22.3422
19952.6,-1.74056,22.3064,22.2961
25118.9,-1.39725,22.2755,22.2689
31622.8,-1.01589,22.2236,22.2201
39810.7,-0.767194,22.1973,22.1953
50118.7,-0.628306,22.202,22.2006
63095.7,-0.309702,22.1853,22.185
79432.8,-0.0587066,22.1799,22.1799
100000,0.133738,22.1515,22.1515
125893,0.40202,22.1762,22.1756
158489,0.662853,22.1963,22.1948
199526,0.97773,22.2103,22.2071
251189,1.19775,22.2481,22.2432
316228,1.50046,22.2387,22.231
398107,1.86178,22.2628,22.2511
501187,2.36105,22.271,22.2521
630957,3.00644,22.2778,22.2471
794328,3.75171,22.3187,22.2709
1000000,4.73635,22.3604,22.284
1.25893e+06,5.90116,22.4153,22.2965
1.58489e+06,7.40804,22.4826,22.295
1.99526e+06,9.28884,22.6233,22.3266
2.51189e+06,11.586,22.8282,22.3631
3.16228e+06,14.4141,23.1152,22.3876
3.98107e+06,17.856,23.5722,22.4368
5.01187e+06,22.0846,24.2964,22.5138
6.30957e+06,26.8208,25.3518,22.6245
7.94328e+06,32.387,26.8601,22.682
10000000,38.3172,28.9086,22.6814