File: impedance/2021-09-23 PBS/copperTape-PBSx1-100mV_day2.csv
#Digilent WaveForms Impedance Analyzer
#Device Name: Discovery2
#Serial Number: SN:210321B19D0B
#Date Time:
#Digilent WaveForms Impedance Analyzer Trace#Trace: Trace
#Start: 0.1 Hz
#Stop: 1e+07 Hz
#Steps: 81
#Resistor: 100 O
#Average: 1
#ProbeResistance: 1.04e+06 O
#ProbeCapacitance: 4.3e-11 F
#Compensation:none
#Wavegen: Wavegen1
#Amplitude: 0.1 V
#Offset: 0 V
#Amplification: 1 X
#Settle: 0.01 s
#MinPeriods: 16
#Scale: Logarithmic
#Channel: Channel 1
#Range: 5.53139 V
#Offset: -3.93045e-05 V
#Attenuation: 1 X
#Channel: Channel 2
#Range: 5.54075 V
#Offset: 6.34596e-06 V
#Attenuation: 1 X

Frequency (Hz),Trace th (deg),Trace |Z| (Ohm),Trace Rs (Ohm)
0.1,-33.0511,1538.46,1289.51
0.125893,-34.2519,1434.91,1186.05
0.158489,-35.0923,1353.43,1107.41
0.199526,-35.955,1271.58,1029.32
0.251189,-36.9006,1185.26,947.827
0.316228,-37.6592,1098.69,869.79
0.398107,-38.5163,1014.6,793.852
0.501187,-39.2291,933.278,722.939
0.630957,-39.9923,856.74,656.375
0.794328,-40.7444,784.903,594.665
1,-41.4457,717.338,537.705
1.25893,-42.169,651.681,483.005
1.58489,-42.846,590.892,433.232
1.99526,-43.4859,534.28,387.644
2.51189,-44.1813,481.442,345.26
3.16228,-44.8293,432.11,306.456
3.98107,-45.4887,386.605,271.029
5.01187,-46.0887,345.388,239.542
6.30957,-46.666,307.087,210.739
7.94328,-47.155,272.346,185.2
10,-47.5937,241.116,162.605
12.5893,-47.9255,213.158,142.837
15.8489,-48.1438,188.069,125.491
19.9526,-48.3422,165.569,110.05
25.1189,-48.3598,145.519,96.6902
31.6228,-48.2391,127.676,85.0352
39.8107,-48.0009,112.021,74.9556
50.1187,-47.5545,98.266,66.3186
63.0957,-46.8924,86.2605,58.9479
79.4328,-46.0187,75.8388,52.6643
100,-44.9318,66.7155,47.2311
125.893,-43.5417,58.9019,42.6964
158.489,-41.8174,52.1051,38.8326
199.526,-39.7225,46.3681,35.664
251.189,-37.3138,41.5135,33.0169
316.228,-34.6335,37.5138,30.8665
398.107,-31.614,34.2029,29.1271
501.187,-28.4212,31.51,27.7122
630.957,-25.2222,29.4226,26.6175
794.328,-21.9466,27.7532,25.742
1000,-18.8377,26.4891,25.0703
1258.93,-16.0797,25.5451,24.5457
1584.89,-13.4732,24.8494,24.1655
1995.26,-11.263,24.3591,23.89
2511.89,-9.32025,23.9855,23.6689
3162.28,-7.55597,23.6789,23.4733
3981.07,-6.17152,23.4427,23.3068
5011.87,-4.99768,23.4055,23.3165
6309.57,-3.97312,23.262,23.2061
7943.28,-3.21478,23.2091,23.1726
10000,-2.74706,23.0996,23.073
12589.3,-2.02457,23.0471,23.0327
15848.9,-1.86806,23.0871,23.0748
19952.6,-1.48003,23.082,23.0743
25118.9,-1.6171,22.9678,22.9586
31622.8,-1.05252,23.0355,23.0316
39810.7,-1.34227,23.0233,23.0169
50118.7,-0.250486,22.9989,22.9987
63095.7,0.175241,23.0477,23.0476
79432.8,0.0108991,22.9562,22.9562
100000,0.149759,23.1836,23.1836
125893,0.286819,23.037,23.0367
158489,0.726115,23.1926,23.1908
199526,0.929883,23.0712,23.0682
251189,0.831905,23.3198,23.3173
316228,2.01357,23.1175,23.1032
398107,1.81223,23.1727,23.1611
501187,2.19299,23.1826,23.1656
630957,2.81254,23.0236,22.9959
794328,3.50616,23.1182,23.075
1000000,4.51831,23.2232,23.151
1.25893e+06,5.73644,23.2565,23.14
1.58489e+06,7.12978,23.3667,23.186
1.99526e+06,9.01464,23.4945,23.2043
2.51189e+06,11,23.6604,23.2257
3.16228e+06,13.8954,23.7913,23.095
3.98107e+06,16.7946,24.2645,23.2295
5.01187e+06,20.6301,25.0882,23.4794
6.30957e+06,25.4276,25.9389,23.4262
7.94328e+06,31.0701,27.4631,23.5231
10000000,36.5182,29.7942,23.9447