File: impedance/2021-09-23 PBS/copperTape-PBSx1-100mV.csv
#Digilent WaveForms Impedance Analyzer
#Device Name: Discovery2
#Serial Number: SN:210321B19D0B
#Date Time:
#Digilent WaveForms Impedance Analyzer Trace#Trace: Trace
#Start: 0.1 Hz
#Stop: 1e+07 Hz
#Steps: 81
#Resistor: 100 O
#Average: 1
#ProbeResistance: 1.04e+06 O
#ProbeCapacitance: 4.3e-11 F
#Compensation:none
#Wavegen: Wavegen1
#Amplitude: 0.1 V
#Offset: 0 V
#Amplification: 1 X
#Settle: 0.01 s
#MinPeriods: 16
#Scale: Logarithmic
#Channel: Channel 1
#Range: 5.53139 V
#Offset: -3.93045e-05 V
#Attenuation: 1 X
#Channel: Channel 2
#Range: 5.54075 V
#Offset: 6.34596e-06 V
#Attenuation: 1 X

Frequency (Hz),Trace th (deg),Trace |Z| (Ohm),Trace Rs (Ohm)
0.1,-28.4301,581.495,511.366
0.125893,-29.0703,567.651,496.14
0.158489,-29.1683,550.645,480.819
0.199526,-29.4453,528.227,459.993
0.251189,-29.5967,505.068,439.168
0.316228,-29.9798,481.507,417.082
0.398107,-30.2995,457.18,394.73
0.501187,-30.7867,432.485,371.539
0.630957,-31.2127,407.903,348.859
0.794328,-31.6642,384.249,327.05
1,-32.0707,361.018,305.924
1.25893,-32.5475,338.778,285.571
1.58489,-33.0364,317.045,265.786
1.99526,-33.4379,296.729,247.615
2.51189,-33.8195,276.976,230.111
3.16228,-34.2311,258.103,213.393
3.98107,-34.515,240.084,197.824
5.01187,-34.8647,222.737,182.757
6.30957,-35.2087,206.532,168.748
7.94328,-35.4281,190.814,155.484
10,-35.6986,175.998,142.927
12.5893,-35.8418,162.01,131.331
15.8489,-35.9449,148.579,120.287
19.9526,-35.9867,136.3,110.288
25.1189,-36.0308,124.778,100.908
31.6228,-35.9518,114.183,92.4323
39.8107,-35.8846,104.349,84.5437
50.1187,-35.8085,95.3531,77.3292
63.0957,-35.7572,87.1508,70.7229
79.4328,-35.6287,79.5527,64.6612
100,-35.4665,72.4901,59.0399
125.893,-35.2571,66.0999,53.9753
158.489,-34.9485,60.0981,49.2604
199.526,-34.5642,54.6751,45.0245
251.189,-33.9612,49.7089,41.2294
316.228,-33.1083,45.1498,37.8192
398.107,-32.0628,41.1075,34.8373
501.187,-30.603,37.5233,32.2968
630.957,-28.7734,34.3702,30.1265
794.328,-26.6646,31.6961,28.3252
1000,-24.3368,29.4686,26.85
1258.93,-21.6832,27.6864,25.7273
1584.89,-19.0274,26.2714,24.836
1995.26,-16.3622,25.1879,24.1678
2511.89,-13.9833,24.3269,23.606
3162.28,-11.6732,23.7644,23.2729
3981.07,-9.82981,23.2735,22.9319
5011.87,-7.98464,22.9759,22.7531
6309.57,-6.71879,22.7581,22.6018
7943.28,-5.72038,22.6104,22.4978
10000,-4.4355,22.4616,22.3943
12589.3,-3.90067,22.4077,22.3558
15848.9,-2.76577,22.2742,22.2482
19952.6,-2.22137,22.3981,22.3812
25118.9,-2.1068,22.3448,22.3297
31622.8,-1.70688,22.0858,22.076
39810.7,-1.04151,22.1563,22.1527
50118.7,-0.855096,22.1147,22.1122
63095.7,-0.500439,22.2211,22.2203
79432.8,0.108908,22.0986,22.0986
100000,0.260667,22.3329,22.3327
125893,0.601613,22.0678,22.0666
158489,0.530998,22.2404,22.2395
199526,0.945655,22.0661,22.0631
251189,1.67947,22.3463,22.3367
316228,1.46831,22.3086,22.3013
398107,1.75269,22.2999,22.2895
501187,2.57182,22.1625,22.1402
630957,2.7414,22.4411,22.4154
794328,3.74785,22.3693,22.3214
1000000,4.50644,22.3261,22.257
1.25893e+06,5.79607,22.3467,22.2325
1.58489e+06,7.36727,22.559,22.3727
1.99526e+06,9.00679,22.6422,22.363
2.51189e+06,11.6207,22.9223,22.4525
3.16228e+06,14.2016,23.0501,22.3457
3.98107e+06,17.6577,23.6146,22.502
5.01187e+06,21.7616,24.3419,22.6072
6.30957e+06,25.9933,25.3564,22.7915
7.94328e+06,31.7938,26.6947,22.6891
10000000,37.873,28.9997,22.8916