File: impedance/2021-09-23 PBS/copperTape-PBSx1-20mV_day2.csv
#Digilent WaveForms Impedance Analyzer
#Device Name: Discovery2
#Serial Number: SN:210321B19D0B
#Date Time:
#Digilent WaveForms Impedance Analyzer Trace#Trace: Trace
#Start: 0.1 Hz
#Stop: 1e+07 Hz
#Steps: 81
#Resistor: 100 O
#Average: 1
#ProbeResistance: 1.04e+06 O
#ProbeCapacitance: 4.3e-11 F
#Compensation:none
#Wavegen: Wavegen1
#Amplitude: 0.02 V
#Offset: 0 V
#Amplification: 1 X
#Settle: 0.01 s
#MinPeriods: 16
#Scale: Logarithmic
#Channel: Channel 1
#Range: 5.53139 V
#Offset: -3.93045e-05 V
#Attenuation: 1 X
#Channel: Channel 2
#Range: 5.54075 V
#Offset: 6.34596e-06 V
#Attenuation: 1 X

Frequency (Hz),Trace th (deg),Trace |Z| (Ohm),Trace Rs (Ohm)
0.1,-35.587,2310.96,1879.35
0.125893,-35.5839,2138.44,1739.12
0.158489,-38.5538,1917.63,1499.63
0.199526,-38.9031,1710.68,1331.26
0.251189,-41.2289,1576.86,1185.93
0.316228,-42.271,1429.47,1057.77
0.398107,-43.0817,1243.4,908.154
0.501187,-43.9197,1117.78,805.152
0.630957,-44.1451,1010.95,725.435
0.794328,-44.9703,907.166,641.795
1,-45.1266,800.602,564.859
1.25893,-46.0875,707.741,490.86
1.58489,-46.4032,630.095,434.5
1.99526,-46.8018,559.16,382.759
2.51189,-47.4714,498.059,336.667
3.16228,-47.1932,441.291,299.87
3.98107,-47.5917,393.029,265.062
5.01187,-47.7357,348.56,234.425
6.30957,-47.7888,308.967,207.584
7.94328,-48.1169,274.039,182.952
10,-48.3273,240.529,159.922
12.5893,-48.473,212.771,141.062
15.8489,-48.7137,187.536,123.74
19.9526,-48.8296,165.015,108.63
25.1189,-48.944,145.978,95.8779
31.6228,-48.6841,128.097,84.5711
39.8107,-48.5947,112.26,74.247
50.1187,-48.1425,98.7447,65.8904
63.0957,-47.6878,86.7064,58.3682
79.4328,-46.9748,76.1596,51.9652
100,-45.9365,67.0748,46.6475
125.893,-44.5821,59.1518,42.1306
158.489,-42.8927,52.254,38.2828
199.526,-40.5326,46.2939,35.185
251.189,-38.1356,41.3965,32.5604
316.228,-35.6311,37.2324,30.2619
398.107,-32.2583,33.6459,28.4527
501.187,-29.0735,31.1649,27.238
630.957,-25.5745,29.1359,26.2813
794.328,-21.8705,27.125,25.1728
1000,-19.0319,26.4021,24.9589
1258.93,-16.9492,25.2892,24.1907
1584.89,-14.2746,24.5495,23.7916
1995.26,-10.7543,24.1524,23.7282
2511.89,-10.0829,23.5764,23.2122
3162.28,-8.02076,23.1917,22.9648
3981.07,-6.22574,22.9296,22.7943
5011.87,-5.02732,22.9329,22.8447
6309.57,-4.39964,22.9354,22.8679
7943.28,-3.6698,22.8609,22.814
10000,-4.14711,23.1087,23.0482
12589.3,-1.36985,22.6339,22.6274
15848.9,-2.48423,23.0111,22.9895
19952.6,-1.50378,22.9202,22.9123
25118.9,0.857678,22.8704,22.8678
31622.8,-1.28729,22.6483,22.6426
39810.7,-0.889171,22.9028,22.9001
50118.7,-1.72682,22.438,22.4278
63095.7,-1.32943,22.8374,22.8312
79432.8,0.172093,23.561,23.5609
100000,-2.01996,22.5769,22.5629
125893,-2.39443,22.0425,22.0233
158489,-4.51644,22.5866,22.5165
199526,0.657327,21.2459,21.2445
251189,1.27049,21.0974,21.0922
316228,1.57897,23.4951,23.4862
398107,0.72282,23.2046,23.2027
501187,1.65983,23.0392,23.0296
630957,3.01871,23.3498,23.3174
794328,3.26549,22.9478,22.9105
1000000,4.78228,22.828,22.7485
1.25893e+06,4.11227,22.8163,22.7576
1.58489e+06,6.9412,23.58,23.4072
1.99526e+06,7.57943,23.102,22.9002
2.51189e+06,9.01762,23.7667,23.4729
3.16228e+06,12.8849,23.3902,22.8013
3.98107e+06,14.7572,24.4962,23.6881
5.01187e+06,20.358,24.4431,22.9164
6.30957e+06,24.2414,25.6959,23.4301
7.94328e+06,30.5161,27.693,23.8571
10000000,36.2741,31.1872,25.143