File: impedance/2021-09-23 PBS/copperTape-PBSx1-50mV_day2.csv
#Digilent WaveForms Impedance Analyzer
#Device Name: Discovery2
#Serial Number: SN:210321B19D0B
#Date Time:
#Digilent WaveForms Impedance Analyzer Trace#Trace: Trace
#Start: 0.1 Hz
#Stop: 1e+07 Hz
#Steps: 81
#Resistor: 100 O
#Average: 1
#ProbeResistance: 1.04e+06 O
#ProbeCapacitance: 4.3e-11 F
#Compensation:none
#Wavegen: Wavegen1
#Amplitude: 0.05 V
#Offset: 0 V
#Amplification: 1 X
#Settle: 0.01 s
#MinPeriods: 16
#Scale: Logarithmic
#Channel: Channel 1
#Range: 5.53139 V
#Offset: -3.93045e-05 V
#Attenuation: 1 X
#Channel: Channel 2
#Range: 5.54075 V
#Offset: 6.34596e-06 V
#Attenuation: 1 X

Frequency (Hz),Trace th (deg),Trace |Z| (Ohm),Trace Rs (Ohm)
0.1,-35.52,2058.76,1675.65
0.125893,-36.4675,1838.24,1478.3
0.158489,-37.1966,1700.56,1354.6
0.199526,-38.7078,1553.98,1212.64
0.251189,-39.3575,1424.36,1101.32
0.316228,-40.3657,1291.19,983.791
0.398107,-41.2242,1166.65,877.482
0.501187,-42.2131,1063.26,787.507
0.630957,-42.94,959.635,702.517
0.794328,-43.3272,867.836,631.305
1,-44.0801,776.654,557.923
1.25893,-44.5615,697.154,496.721
1.58489,-45.1648,623.93,439.915
1.99526,-45.5961,559.535,391.513
2.51189,-46.1252,501.411,347.52
3.16228,-46.4922,446.618,307.475
3.98107,-46.87,397.129,271.5
5.01187,-47.2361,353.893,240.286
6.30957,-47.5871,314.103,211.853
7.94328,-47.8295,278.803,187.172
10,-48.2028,246.46,164.264
12.5893,-48.389,217.901,144.701
15.8489,-48.6161,191.816,126.81
19.9526,-48.7546,168.881,111.341
25.1189,-48.8076,148.405,97.7381
31.6228,-48.837,129.903,85.5025
39.8107,-48.5717,113.949,75.3981
50.1187,-48.3404,99.8676,66.3824
63.0957,-47.793,87.5191,58.7963
79.4328,-46.9468,76.6538,52.3298
100,-45.8914,67.3982,46.9106
125.893,-44.4094,59.4308,42.4548
158.489,-42.7734,52.5355,38.5634
199.526,-40.7434,46.6067,35.3111
251.189,-38.2868,41.6413,32.6851
316.228,-35.4182,37.433,30.5058
398.107,-32.2484,34.1609,28.8913
501.187,-29.0055,31.4032,27.4644
630.957,-25.6057,29.3091,26.4306
794.328,-22.4466,27.5886,25.4984
1000,-19.3558,26.4199,24.9266
1258.93,-16.3493,25.3504,24.3253
1584.89,-13.5047,24.7393,24.0553
1995.26,-11.1728,24.2165,23.7575
2511.89,-9.35877,23.8396,23.5223
3162.28,-7.63098,23.6021,23.393
3981.07,-6.43454,23.3698,23.2226
5011.87,-5.50664,23.3577,23.2499
6309.57,-4.01733,23.1888,23.1319
7943.28,-3.26444,23.2928,23.255
10000,-2.18484,22.9375,22.9208
12589.3,-1.97296,23.1363,23.1226
15848.9,-1.79358,23.077,23.0657
19952.6,-1.47111,22.9211,22.9135
25118.9,-0.487197,23.129,23.1282
31622.8,-0.153773,23.0042,23.0041
39810.7,-0.466526,22.8015,22.8008
50118.7,0.00225334,23.0585,23.0585
63095.7,-0.909526,22.7108,22.7079
79432.8,-0.132109,22.7289,22.7288
100000,0.722725,22.6029,22.6011
125893,0.325112,22.8385,22.8381
158489,1.993,23.0359,23.022
199526,0.83249,23.5016,23.4991
251189,0.723689,22.3115,22.3097
316228,1.68316,22.687,22.6772
398107,1.33676,22.7603,22.7541
501187,2.08336,23.1654,23.1501
630957,3.09248,23.1241,23.0904
794328,2.92834,22.8286,22.7988
1000000,4.13402,23.1402,23.08
1.25893e+06,5.59622,22.8108,22.7021
1.58489e+06,7.02491,23.1249,22.9513
1.99526e+06,8.55818,23.2012,22.9429
2.51189e+06,10.9907,23.3983,22.9691
3.16228e+06,13.458,23.6682,23.0183
3.98107e+06,17.3206,24.2398,23.1406
5.01187e+06,20.8183,24.6104,23.0036
6.30957e+06,25.1655,25.8116,23.3617
7.94328e+06,30.4842,27.2408,23.4753
10000000,36.0492,29.8118,24.1032