File: impedance/2021-09-23 PBS/copperTape-PBSx1-500mV.csv
#Digilent WaveForms Impedance Analyzer
#Device Name: Discovery2
#Serial Number: SN:210321B19D0B
#Date Time:
#Digilent WaveForms Impedance Analyzer Trace#Trace: Trace
#Start: 0.1 Hz
#Stop: 1e+07 Hz
#Steps: 81
#Resistor: 100 O
#Average: 1
#ProbeResistance: 1.04e+06 O
#ProbeCapacitance: 4.3e-11 F
#Compensation:none
#Wavegen: Wavegen1
#Amplitude: 0.5 V
#Offset: 0 V
#Amplification: 1 X
#Settle: 0.01 s
#MinPeriods: 16
#Scale: Logarithmic
#Channel: Channel 1
#Range: 5.53139 V
#Offset: -3.93045e-05 V
#Attenuation: 1 X
#Channel: Channel 2
#Range: 5.54075 V
#Offset: 6.34596e-06 V
#Attenuation: 1 X

Frequency (Hz),Trace th (deg),Trace |Z| (Ohm),Trace Rs (Ohm)
0.1,-30.8744,527.319,452.595
0.125893,-31.9942,599.957,508.825
0.158489,-32.6286,599.196,504.633
0.199526,-33.0999,576.624,483.05
0.251189,-33.4959,546.689,455.898
0.316228,-33.8589,513.909,426.756
0.398107,-34.1334,480.711,397.9
0.501187,-34.4047,448.709,370.215
0.630957,-34.6631,418.17,343.95
0.794328,-34.9344,389.206,319.074
1,-35.2445,362.087,295.715
1.25893,-35.6067,336.239,273.373
1.58489,-35.9931,311.753,252.236
1.99526,-36.3927,288.526,232.254
2.51189,-36.7724,266.6,213.552
3.16228,-37.1688,245.69,195.781
3.98107,-37.5318,225.979,179.204
5.01187,-37.8449,207.229,163.643
6.30957,-38.0876,189.402,149.073
7.94328,-38.2421,172.433,135.429
10,-38.2492,156.365,122.798
12.5893,-38.0831,141.204,111.144
15.8489,-37.7236,127.057,100.498
19.9526,-37.1628,113.986,90.8382
25.1189,-36.3943,102.193,82.2604
31.6228,-35.4967,91.7333,74.6846
39.8107,-34.59,82.696,68.0783
50.1187,-33.6498,74.8483,62.3067
63.0957,-32.8089,68.131,57.2629
79.4328,-31.998,62.2966,52.8317
100,-31.2352,57.1672,48.8806
125.893,-30.4467,52.6085,45.3539
158.489,-29.6258,48.5206,42.1776
199.526,-28.6921,44.844,39.3377
251.189,-27.6673,41.5188,36.7715
316.228,-26.4925,38.5777,34.5267
398.107,-25.1501,35.9371,32.5302
501.187,-23.6828,33.6077,30.7774
630.957,-22.0839,31.5886,29.2711
794.328,-20.4024,29.8265,27.9554
1000,-18.6138,28.3283,26.8465
1258.93,-16.7895,27.0431,25.8903
1584.89,-14.9563,25.9701,25.0903
1995.26,-13.1285,25.1036,24.4474
2511.89,-11.3864,24.4076,23.9272
3162.28,-9.76845,23.8726,23.5265
3981.07,-8.29133,23.4264,23.1815
5011.87,-6.95031,23.1186,22.9487
6309.57,-5.85609,22.8727,22.7533
7943.28,-4.76431,22.685,22.6066
10000,-3.94026,22.5488,22.4955
12589.3,-3.23184,22.4333,22.3976
15848.9,-2.62562,22.3833,22.3598
19952.6,-2.19229,22.3141,22.2977
25118.9,-1.62434,22.2743,22.2653
31622.8,-1.28763,22.2351,22.2295
39810.7,-1.02208,22.2351,22.2315
50118.7,-0.756257,22.2103,22.2084
63095.7,-0.355722,22.1718,22.1714
79432.8,-0.0229016,22.1744,22.1744
100000,0.174228,22.188,22.1879
125893,0.461849,22.2428,22.2421
158489,0.617318,22.2007,22.1994
199526,0.875935,22.2745,22.2719
251189,1.22021,22.2749,22.2698
316228,1.4383,22.2558,22.2488
398107,1.88492,22.2662,22.2541
501187,2.40429,22.2892,22.2696
630957,2.89093,22.3168,22.2884
794328,3.71669,22.3423,22.2953
1000000,4.70282,22.381,22.3056
1.25893e+06,5.90398,22.4362,22.3172
1.58489e+06,7.31073,22.5236,22.3405
1.99526e+06,9.23684,22.6298,22.3364
2.51189e+06,11.5062,22.8131,22.3546
3.16228e+06,14.2618,23.1066,22.3945
3.98107e+06,17.702,23.5322,22.418
5.01187e+06,21.8842,24.2223,22.4768
6.30957e+06,26.4741,25.2081,22.5646
7.94328e+06,31.9675,26.6662,22.6222
10000000,37.6883,28.6227,22.6505