File: impedance/2021-09-23 PBS/copperTape-PBSx1-1V_day2.csv
#Digilent WaveForms Impedance Analyzer
#Device Name: Discovery2
#Serial Number: SN:210321B19D0B
#Date Time:
#Digilent WaveForms Impedance Analyzer Trace#Trace: Trace
#Start: 0.1 Hz
#Stop: 1e+07 Hz
#Steps: 81
#Resistor: 100 O
#Average: 1
#ProbeResistance: 1.04e+06 O
#ProbeCapacitance: 4.3e-11 F
#Compensation:none
#Wavegen: Wavegen1
#Amplitude: 1 V
#Offset: 0 V
#Amplification: 1 X
#Settle: 0.01 s
#MinPeriods: 16
#Scale: Logarithmic
#Channel: Channel 1
#Range: 5.53139 V
#Offset: -3.93045e-05 V
#Attenuation: 1 X
#Channel: Channel 2
#Range: 5.54075 V
#Offset: 6.34596e-06 V
#Attenuation: 1 X

Frequency (Hz),Trace th (deg),Trace |Z| (Ohm),Trace Rs (Ohm)
0.1,-33.5913,765.762,637.884
0.125893,-36.3229,651.998,525.31
0.158489,-39.4021,624.2,482.325
0.199526,-41.5856,594.61,444.747
0.251189,-43.3338,557.109,405.224
0.316228,-44.887,525.67,372.437
0.398107,-46.251,495.089,342.354
0.501187,-47.3117,464.083,314.653
0.630957,-48.0555,432.204,288.89
0.794328,-48.4087,397.485,263.856
1,-48.4885,361.24,239.419
1.25893,-48.5684,326.086,215.779
1.58489,-48.806,292.931,192.928
1.99526,-49.1546,261.502,171.028
2.51189,-49.5536,232.496,150.829
3.16228,-49.9161,206.797,133.158
3.98107,-50.1844,184.197,117.945
5.01187,-50.3311,164.239,104.842
6.30957,-50.3164,147.232,94.0147
7.94328,-50.0687,133.274,85.5445
10,-49.6245,121.5,78.7066
12.5893,-49.0882,111.124,72.7748
15.8489,-48.4932,101.84,67.4903
19.9526,-47.8545,93.2875,62.5973
25.1189,-47.1664,85.5031,58.1311
31.6228,-46.4076,78.4796,54.1135
39.8107,-45.5683,72.0156,50.4151
50.1187,-44.6806,66.1592,47.0417
63.0957,-43.6646,60.6464,43.8712
79.4328,-42.3967,55.3719,40.8918
100,-40.8015,50.3658,38.1258
125.893,-38.8544,45.7974,35.6644
158.489,-36.5804,41.7155,33.4985
199.526,-34.021,38.1575,31.6262
251.189,-31.2571,35.1301,30.0309
316.228,-28.3694,32.5797,28.667
398.107,-25.426,30.4844,27.5317
501.187,-22.5143,28.7865,26.5925
630.957,-19.6568,27.422,25.8239
794.328,-16.9747,26.3482,25.2003
1000,-14.4958,25.5189,24.7065
1258.93,-12.2727,24.8854,24.3167
1584.89,-10.3216,24.4148,24.0197
1995.26,-8.62766,24.0462,23.7741
2511.89,-7.14927,23.7694,23.5846
3162.28,-5.95804,23.5622,23.4349
3981.07,-4.93921,23.3953,23.3085
5011.87,-4.07035,23.2858,23.2271
6309.57,-3.36377,23.1805,23.1406
7943.28,-2.73942,23.0997,23.0733
10000,-2.25022,23.0434,23.0256
12589.3,-1.77824,22.9962,22.9852
15848.9,-1.4742,22.9445,22.9369
19952.6,-1.16358,22.9246,22.9199
25118.9,-0.880136,22.9096,22.9069
31622.8,-0.682889,22.8873,22.8857
39810.7,-0.465185,22.8675,22.8668
50118.7,-0.281448,22.8387,22.8384
63095.7,-0.0901285,22.8501,22.8501
79432.8,0.168919,22.8561,22.856
100000,0.326814,22.8677,22.8673
125893,0.476804,22.8863,22.8855
158489,0.759639,22.8789,22.8769
199526,1.04492,22.8947,22.8909
251189,1.31012,22.9508,22.9448
316228,1.51745,22.9884,22.9803
398107,1.84677,22.9784,22.9665
501187,2.33156,22.9651,22.9461
630957,2.96573,22.9764,22.9456
794328,3.67536,23.0136,22.9663
1000000,4.58404,23.0537,22.9799
1.25893e+06,5.74255,23.1073,22.9914
1.58489e+06,7.17336,23.1801,22.9987
1.99526e+06,9.00461,23.317,23.0296
2.51189e+06,11.2392,23.4993,23.0487
3.16228e+06,14.0226,23.785,23.0762
3.98107e+06,17.4116,24.2319,23.1216
5.01187e+06,21.5355,24.9212,23.1814
6.30957e+06,26.2384,26.0213,23.3401
7.94328e+06,31.4038,27.4213,23.4045
10000000,37.5169,29.4556,23.3634