File: impedance/2021-09-23 PBS/copperTape-PBSx1-10mV.csv
#Digilent WaveForms Impedance Analyzer
#Device Name: Discovery2
#Serial Number: SN:210321B19D0B
#Date Time:
#Digilent WaveForms Impedance Analyzer Trace#Trace: Trace
#Start: 0.1 Hz
#Stop: 1e+07 Hz
#Steps: 81
#Resistor: 100 O
#Average: 1
#ProbeResistance: 1.04e+06 O
#ProbeCapacitance: 4.3e-11 F
#Compensation:none
#Wavegen: Wavegen1
#Amplitude: 0.01 V
#Offset: 0 V
#Amplification: 1 X
#Settle: 0.01 s
#MinPeriods: 16
#Scale: Logarithmic
#Channel: Channel 1
#Range: 5.53139 V
#Offset: -3.93045e-05 V
#Attenuation: 1 X
#Channel: Channel 2
#Range: 5.54075 V
#Offset: 6.34596e-06 V
#Attenuation: 1 X

Frequency (Hz),Trace th (deg),Trace |Z| (Ohm),Trace Rs (Ohm)
0.1,-18.7725,903.17,855.125
0.125893,-22.3386,1091.29,1009.4
0.158489,-24.5703,1091.65,992.799
0.199526,-26.4738,1060.82,949.584
0.251189,-29.4318,1060.36,923.513
0.316228,-32.8128,991.114,832.978
0.398107,-34.9423,880.595,721.849
0.501187,-37.8065,812.844,642.216
0.630957,-40.5166,729.437,554.531
0.794328,-42.5022,674.012,496.916
1,-44.732,581.984,413.445
1.25893,-45.8704,515.649,359.038
1.58489,-46.5229,454.697,312.86
1.99526,-47.2482,402.35,273.125
2.51189,-47.7638,350.052,235.301
3.16228,-47.5719,309.65,208.91
3.98107,-47.2031,269.547,183.131
5.01187,-46.5303,239.458,164.74
6.30957,-45.7988,211.923,147.749
7.94328,-44.7607,188.752,134.024
10,-44.1781,168.291,120.694
12.5893,-43.0543,149.673,109.367
15.8489,-41.9971,134.595,100.028
19.9526,-41.0048,120.668,91.0624
25.1189,-39.8972,109.664,84.134
31.6228,-38.3973,98.8739,77.4897
39.8107,-37.9854,89.6343,70.6469
50.1187,-37.1563,81.6181,65.0488
63.0957,-36.0235,73.8325,59.7139
79.4328,-35.1707,67.6361,55.2884
100,-34.4583,62.3847,51.4386
125.893,-33.6099,56.7494,47.2623
158.489,-32.5782,52.252,44.0306
199.526,-31.792,47.4647,40.3433
251.189,-30.8566,43.8678,37.6585
316.228,-30.0201,40.5742,35.1312
398.107,-28.4467,37.5334,33.0016
501.187,-27.2899,34.3145,30.4953
630.957,-25.9434,32.1994,28.9545
794.328,-23.6307,29.697,27.2068
1000,-20.9495,28.2188,26.3534
1258.93,-19.1147,26.7375,25.2634
1584.89,-17.7748,25.2444,24.0393
1995.26,-16.0632,24.5772,23.6176
2511.89,-11.1668,23.1881,22.7491
3162.28,-10.2589,23.3326,22.9596
3981.07,-6.97926,22.4086,22.2426
5011.87,-8.492,22.767,22.5174
6309.57,-6.35253,22.2632,22.1265
7943.28,-1.94495,22.5324,22.5194
10000,-4.27942,21.4827,21.4228
12589.3,-3.87616,22.2278,22.177
15848.9,-3.0676,21.7332,21.7021
19952.6,2.17341,22.3152,22.2991
25118.9,0.294965,22.0973,22.097
31622.8,-5.76803,23.9436,23.8224
39810.7,3.05955,21.6581,21.6273
50118.7,-0.836837,23.2503,23.2478
63095.7,5.59255,22.9997,22.8902
79432.8,-2.11043,20.2554,20.2417
100000,0.41555,19.3807,19.3802
125893,6.47385,21.3477,21.2116
158489,-2.25755,22.0276,22.0106
199526,5.53695,22.777,22.6707
251189,6.12495,20.5832,20.4657
316228,-1.35916,21.8052,21.7991
398107,1.2952,20.5088,20.5036
501187,2.11864,23.3622,23.3462
630957,-0.632044,22.0383,22.037
794328,2.71891,23.0174,22.9915
1000000,-0.0911604,22.7992,22.7992
1.25893e+06,2.36066,22.5393,22.5202
1.58489e+06,7.59089,23.8589,23.6498
1.99526e+06,7.27153,22.4608,22.2801
2.51189e+06,11.2995,22.3673,21.9337
3.16228e+06,10.784,22.6578,22.2576
3.98107e+06,14.8892,24.4237,23.6037
5.01187e+06,16.211,25.3675,24.3589
6.30957e+06,21.1682,27.3352,25.4908
7.94328e+06,29.5111,28.4195,24.7323
10000000,31.7118,32.1849,27.3798